"Disp (mm)" "Load (kN)" "d (raw)" "f (raw)"
0 0 0 0.01
0.0163 0.0071 0.0163 0.0177
0.0333 0.0242 0.0333 0.0348
0.0500 0.0413 0.0500 0.0520
0.0667 0.0589 0.0667 0.0696
0.0833 0.0771 0.0833 0.0877
0.1000 0.0946 0.1001 0.1053
0.1166 0.1116 0.1167 0.1222
0.1333 0.1294 0.1334 0.1400
0.1500 0.1467 0.1500 0.1573
0.1666 0.1654 0.1667 0.1761
0.1833 0.1835 0.1833 0.1942
0.2000 0.2028 0.2000 0.2134
0.2166 0.2222 0.2167 0.2329
0.2334 0.2419 0.2334 0.2525
0.2500 0.2609 0.2500 0.2715
0.2667 0.2810 0.2667 0.2916
0.2833 0.2944 0.2834 0.3051
0.3000 0.2965 0.3000 0.3072
0.3166 0.2997 0.3167 0.3103
0.3333 0.2998 0.3334 0.3104
0.3499 0.2999 0.3500 0.3105
0.3667 0.3000 0.3667 0.3107
0.3834 0.3000 0.3834 0.3107
0.4000 0.3005 0.4001 0.3111
0.4166 0.3012 0.4167 0.3118
0.4333 0.3010 0.4334 0.3117
0.4500 0.3012 0.4500 0.3119
0.4667 0.3014 0.4667 0.3120
0.4833 0.3014 0.4833 0.3120
0.5000 0.3017 0.5001 0.3123
0.5167 0.3018 0.5167 0.3124
0.5334 0.3018 0.5334 0.3125
0.5500 0.3016 0.5500 0.3122
0.5667 0.3030 0.5667 0.3136
0.5833 0.3062 0.5834 0.3168
0.6000 0.3190 0.6000 0.3297
0.6166 0.3410 0.6166 0.3516
0.6334 0.3629 0.6334 0.3736
0.6500 0.3863 0.6500 0.3970
0.6667 0.4095 0.6667 0.4202
0.6833 0.4338 0.6833 0.4444
0.7000 0.4582 0.7000 0.4688
0.7167 0.4829 0.7167 0.4936
0.7334 0.5080 0.7334 0.5186
0.7500 0.5337 0.7500 0.5443
0.7667 0.5597 0.7667 0.5703
0.7834 0.5856 0.7834 0.5962
0.8000 0.6118 0.8000 0.6225
0.8167 0.6416 0.8167 0.6522
0.8334 0.6694 0.8334 0.6800
0.8500 0.6980 0.8500 0.7086
0.8666 0.7276 0.8667 0.7382
0.8833 0.7585 0.8833 0.7691
0.9000 0.7891 0.9000 0.7997
0.9167 0.8208 0.9168 0.8314
0.9334 0.8516 0.9334 0.8622
0.9500 0.8817 0.9500 0.8923
0.9666 0.9123 0.9666 0.9229
0.9833 0.9434 0.9833 0.9540
1.0000 0.9751 1.0000 0.9857
1.0167 1.0067 1.0167 1.0173
1.0334 1.0378 1.0334 1.0485
1.0500 1.0693 1.0500 1.0800
1.0667 1.1020 1.0667 1.1127
1.0834 1.1337 1.0834 1.1443
1.1000 1.1687 1.1001 1.1793
1.1167 1.2093 1.1167 1.2200
1.1333 1.2500 1.1334 1.2607
1.1500 1.2926 1.1500 1.3032
1.1666 1.3355 1.1667 1.3461
1.1834 1.3784 1.1834 1.3890
1.2000 1.4234 1.2001 1.4341
1.2167 1.4717 1.2167 1.4824
1.2334 1.5203 1.2334 1.5309
1.2500 1.5692 1.2500 1.5798
1.2666 1.6198 1.2666 1.6305
1.2833 1.6710 1.2834 1.6816
1.3000 1.7231 1.3000 1.7337
1.3167 1.7770 1.3167 1.7876
1.3334 1.8320 1.3334 1.8426
1.3500 1.8870 1.3500 1.8977
1.3666 1.9435 1.3667 1.9541
1.3833 2.0007 1.3834 2.0114
1.3999 2.0585 1.4000 2.0691
1.4167 2.1161 1.4167 2.1268
1.4333 2.1760 1.4333 2.1866
1.4500 2.2359 1.4501 2.2466
1.4667 2.2946 1.4667 2.3053
1.4834 2.3552 1.4834 2.3658
1.5000 2.4151 1.5000 2.4258
1.5167 2.4757 1.5167 2.4863
1.5333 2.5372 1.5333 2.5478
1.5500 2.6000 1.5500 2.6106
1.5666 2.6635 1.5667 2.6741
1.5833 2.7268 1.5834 2.7374
1.6000 2.7900 1.6000 2.8006
1.6167 2.8523 1.6168 2.8629
1.6334 2.9135 1.6334 2.9242
1.6500 2.9729 1.6500 2.9836
1.6666 3.0352 1.6666 3.0458
1.6834 3.1010 1.6834 3.1117
1.7000 3.1642 1.7000 3.1748
1.7167 3.2296 1.7167 3.2403
1.7334 3.2937 1.7334 3.3043
1.7500 3.3600 1.7501 3.3706
1.7667 3.4258 1.7667 3.4364
1.7834 3.4907 1.7834 3.5013
1.8000 3.5560 1.8000 3.5666
1.8167 3.6231 1.8167 3.6338
1.8333 3.6895 1.8334 3.7001
1.8500 3.7567 1.8500 3.7673
1.8667 3.8241 1.8667 3.8347
1.8834 3.8929 1.8834 3.9035
1.9000 3.9614 1.9000 3.9720
1.9167 4.0293 1.9167 4.0400
1.9333 4.0975 1.9333 4.1081
1.9500 4.1663 1.9500 4.1769
1.9666 4.2328 1.9667 4.2435
1.9833 4.2994 1.9834 4.3101
2.0000 4.3672 2.0000 4.3778
2.0167 4.4335 2.0167 4.4442
2.0333 4.5010 2.0334 4.5117
2.0500 4.5686 2.0500 4.5792
2.0666 4.6366 2.0667 4.6472
2.0833 4.7042 2.0834 4.7149
2.1000 4.7704 2.1000 4.7810
2.1167 4.8397 2.1167 4.8504
2.1334 4.9079 2.1334 4.9185
2.1500 4.9765 2.1501 4.9871
2.1666 5.0453 2.1667 5.0560
2.1833 5.1134 2.1834 5.1241
2.2000 5.1811 2.2000 5.1917
2.2167 5.2491 2.2167 5.2598
2.2334 5.3164 2.2334 5.3271
2.2500 5.3805 2.2500 5.3912
2.2666 5.4338 2.2666 5.4445
2.2833 5.4357 2.2834 5.4463
2.3000 5.4763 2.3000 5.4870
2.3167 5.5419 2.3168 5.5526
2.3334 5.6067 2.3334 5.6173
2.3500 5.6745 2.3500 5.6852
2.3666 5.7449 2.3667 5.7555
2.3833 5.8137 2.3834 5.8244
2.4000 5.8836 2.4000 5.8942
2.4167 5.9543 2.4168 5.9649
2.4333 6.0238 2.4334 6.0344
2.4500 6.0933 2.4500 6.1040
2.4666 6.1631 2.4667 6.1737
2.4833 6.2341 2.4834 6.2448
2.5000 6.3041 2.5000 6.3148
2.5167 6.3730 2.5167 6.3836
2.5334 6.4438 2.5334 6.4544
2.5500 6.5116 2.5500 6.5222
2.5667 6.5809 2.5667 6.5916
2.5833 6.6517 2.5834 6.6623
2.6000 6.7206 2.6000 6.7312
2.6166 6.7922 2.6167 6.8028
2.6334 6.8622 2.6334 6.8728
2.6500 6.9326 2.6501 6.9433
2.6667 7.0014 2.6667 7.0120
2.6834 7.0707 2.6834 7.0814
2.7000 7.1394 2.7001 7.1501
2.7166 7.2101 2.7167 7.2207
2.7333 7.2798 2.7334 7.2905
2.7500 7.3481 2.7500 7.3587
2.7666 7.4189 2.7667 7.4295
2.7834 7.4872 2.7834 7.4979
2.8000 7.5559 2.8000 7.5665
2.8167 7.6241 2.8167 7.6348
2.8334 7.6878 2.8334 7.6985
2.8491 7.4356 2.8491 7.4462
2.8658 7.3465 2.8658 7.3571
2.8824 7.4213 2.8824 7.4320
2.8991 7.4961 2.8991 7.5067
2.9158 7.5690 2.9158 7.5797
2.9325 7.6435 2.9325 7.6541
2.9491 7.7174 2.9491 7.7280
2.9658 7.7913 2.9658 7.8020
2.9824 7.8611 2.9825 7.8718
2.9991 7.9312 2.9992 7.9418
3.0157 8.0026 3.0158 8.0133
3.0324 8.0748 3.0325 8.0854
3.0491 8.1463 3.0491 8.1569
3.0658 8.2173 3.0658 8.2280
3.0824 8.2869 3.0825 8.2975
3.0992 8.3565 3.0992 8.3672
3.1157 8.4248 3.1158 8.4354
3.1324 8.4916 3.1324 8.5023
3.1490 8.5571 3.1491 8.5677
3.1658 8.6238 3.1658 8.6344
3.1824 8.6921 3.1824 8.7027
3.1991 8.7599 3.1992 8.7705
3.2158 8.8289 3.2158 8.8395
3.2325 8.8979 3.2325 8.9086
3.2491 8.9642 3.2492 8.9748
3.2658 9.0335 3.2658 9.0442
3.2824 9.1001 3.2824 9.1107
3.2991 9.1665 3.2991 9.1771
3.3158 9.2347 3.3158 9.2453
3.3325 9.2997 3.3325 9.3103
3.3491 9.3641 3.3491 9.3747
3.3658 9.4212 3.3658 9.4319
3.3824 9.4809 3.3824 9.4916
3.3991 9.5441 3.3991 9.5548
3.4157 9.6077 3.4158 9.6183
3.4324 9.6706 3.4325 9.6812
3.4490 9.7350 3.4491 9.7456
3.4658 9.7994 3.4658 9.8100
3.4824 9.8641 3.4825 9.8748
3.4991 9.9295 3.4992 9.9401
3.5158 9.9937 3.5158 10.0044
3.5325 10.0594 3.5325 10.0701
3.5491 10.1242 3.5491 10.1349
3.5657 10.1892 3.5657 10.1998
3.5824 10.2552 3.5824 10.2659
3.5991 10.3205 3.5992 10.3312
3.6158 10.3861 3.6158 10.3967
3.6325 10.4520 3.6325 10.4627
3.6491 10.5145 3.6492 10.5252
3.6658 10.5722 3.6658 10.5828
3.6824 10.6277 3.6824 10.6384
3.6991 10.6870 3.6991 10.6976
3.7157 10.7515 3.7158 10.7621
3.7325 10.8181 3.7325 10.8288
3.7491 10.8832 3.7491 10.8938
3.7658 10.9493 3.7658 10.9600
3.7824 11.0154 3.7825 11.0261
3.7991 11.0807 3.7992 11.0913
3.8158 11.1472 3.8158 11.1578
3.8324 11.2118 3.8324 11.2225
3.8490 11.2767 3.8491 11.2874
3.8658 11.3445 3.8658 11.3551
3.8824 11.4103 3.8825 11.4209
3.8991 11.4769 3.8992 11.4875
3.9158 11.5415 3.9158 11.5521
3.9324 11.6063 3.9324 11.6170
3.9491 11.6726 3.9491 11.6832
3.9658 11.7377 3.9658 11.7483
3.9824 11.8031 3.9824 11.8138
3.9991 11.8684 3.9992 11.8791
4.0158 11.9346 4.0158 11.9452
4.0324 12.0008 4.0324 12.0115
4.0491 12.0684 4.0492 12.0791
4.0658 12.1342 4.0658 12.1449
4.0824 12.2002 4.0825 12.2108
4.0991 12.2629 4.0991 12.2735
4.1157 12.3278 4.1158 12.3384
4.1324 12.3940 4.1325 12.4046
4.1491 12.4576 4.1492 12.4682
4.1658 12.5213 4.1658 12.5320
4.1824 12.5859 4.1825 12.5966
4.1991 12.6507 4.1992 12.6613
4.2158 12.7191 4.2158 12.7298
4.2324 12.7859 4.2324 12.7965
4.2491 12.8504 4.2491 12.8610
4.2658 12.9181 4.2658 12.9287
4.2825 12.9825 4.2825 12.9932
4.2991 13.0475 4.2991 13.0582
4.3158 13.1126 4.3158 13.1232
4.3324 13.1741 4.3325 13.1848
4.3491 13.2379 4.3491 13.2485
4.3658 13.3024 4.3658 13.3130
4.3824 13.3676 4.3825 13.3783
4.3991 13.4304 4.3991 13.4410
4.4158 13.4948 4.4158 13.5054
4.4324 13.5570 4.4325 13.5677
4.4492 13.6146 4.4492 13.6253
4.4658 13.6616 4.4658 13.6722
4.4824 13.7213 4.4824 13.7320
4.4990 13.7845 4.4991 13.7951
4.5158 13.8506 4.5158 13.8612
4.5324 13.9206 4.5324 13.9313
4.5492 13.9905 4.5492 14.0011
4.5658 14.0601 4.5658 14.0708
4.5824 14.1292 4.5825 14.1399
4.5991 14.1979 4.5991 14.2085
4.6157 14.2662 4.6158 14.2769
4.6324 14.3340 4.6324 14.3446
4.6491 14.4032 4.6491 14.4139
4.6658 14.4724 4.6658 14.4831
4.6824 14.5434 4.6825 14.5540
4.6991 14.6144 4.6991 14.6251
4.7158 14.6889 4.7158 14.6995
4.7324 14.7659 4.7325 14.7765
4.7491 14.8409 4.7492 14.8516
4.7657 14.7953 4.7658 14.8059
4.7824 14.8332 4.7825 14.8438
4.7991 14.9160 4.7991 14.9266
4.8158 15.0048 4.8159 15.0155
4.8325 15.0866 4.8325 15.0972
4.8492 15.1608 4.8492 15.1715
4.8657 15.2369 4.8657 15.2476
4.8824 15.3170 4.8824 15.3277
4.8990 15.3954 4.8991 15.4060
4.9158 15.4765 4.9158 15.4871
4.9324 15.5556 4.9324 15.5662
4.9492 15.6365 4.9492 15.6471
4.9658 15.7141 4.9658 15.7248
4.9825 15.7875 4.9825 15.7982
4.9991 15.8593 4.9991 15.8699
5.0158 15.9358 5.0158 15.9465
5.0324 16.0171 5.0324 16.0277
5.0491 16.0981 5.0491 16.1087
5.0657 16.1799 5.0658 16.1905
5.0824 16.2655 5.0825 16.2762
5.0991 16.3508 5.0992 16.3614
5.1158 16.4377 5.1158 16.4484
5.1324 16.5238 5.1325 16.5345
5.1491 16.6135 5.1492 16.6241
5.1657 16.7036 5.1658 16.7142
5.1824 16.7942 5.1825 16.8048
5.1991 16.8844 5.1991 16.8951
5.2158 16.9792 5.2158 16.9898
5.2325 17.0718 5.2325 17.0825
5.2491 17.1674 5.2492 17.1780
5.2658 17.2627 5.2658 17.2733
5.2824 17.3567 5.2825 17.3673
5.2991 17.4515 5.2991 17.4622
5.3158 17.5473 5.3158 17.5580
5.3324 17.6424 5.3324 17.6530
5.3491 17.7405 5.3491 17.7511
5.3658 17.8404 5.3658 17.8510
5.3824 17.9384 5.3825 17.9491
5.3991 18.0385 5.3991 18.0492
5.4158 18.1397 5.4158 18.1504
5.4324 18.2394 5.4324 18.2500
5.4491 18.3422 5.4491 18.3529
5.4657 18.4415 5.4658 18.4522
5.4824 18.5437 5.4825 18.5544
5.4991 18.6466 5.4992 18.6572
5.5158 18.7480 5.5158 18.7586
5.5324 18.8524 5.5324 18.8630
5.5491 18.9559 5.5492 18.9665
5.5657 19.0582 5.5658 19.0688
5.5824 19.1648 5.5825 19.1755
5.5991 19.2704 5.5991 19.2810
5.6158 19.3768 5.6158 19.3874
5.6325 19.4777 5.6325 19.4883
5.6492 19.5830 5.6492 19.5936
5.6658 19.6881 5.6658 19.6987
5.6825 19.7966 5.6825 19.8073
5.6991 19.9070 5.6991 19.9177
5.7158 20.0247 5.7158 20.0354
5.7324 20.1420 5.7325 20.1527
5.7491 20.2591 5.7492 20.2698
5.7658 20.3783 5.7658 20.3889
5.7825 20.4969 5.7825 20.5075
5.7991 20.6189 5.7991 20.6296
5.8158 20.7451 5.8158 20.7557
5.8324 20.8700 5.8325 20.8806
5.8491 21.0034 5.8491 21.0141
5.8658 21.1389 5.8658 21.1495
5.8824 21.2787 5.8825 21.2893
5.8991 21.4171 5.8991 21.4277
5.9158 21.5557 5.9158 21.5664
5.9324 21.6927 5.9325 21.7034
5.9491 21.8321 5.9492 21.8427
5.9658 21.9696 5.9658 21.9803
5.9824 22.1087 5.9824 22.1193
5.9991 22.2482 5.9991 22.2588
6.0158 22.3878 6.0158 22.3985
6.0324 22.5294 6.0324 22.5401
6.0491 22.6701 6.0491 22.6807
6.0658 22.8132 6.0658 22.8239
6.0824 22.9573 6.0824 22.9680
6.0991 23.1001 6.0991 23.1107
6.1157 23.2388 6.1158 23.2494
6.1325 23.3822 6.1325 23.3929
6.1491 23.5242 6.1492 23.5348
6.1658 23.6694 6.1658 23.6800
6.1824 23.8174 6.1824 23.8280
6.1991 23.9657 6.1992 23.9764
6.2158 24.1154 6.2158 24.1260
6.2324 24.2665 6.2325 24.2772
6.2491 24.4169 6.2491 24.4276
6.2657 24.5736 6.2658 24.5842
6.2824 24.7280 6.2825 24.7386
6.2991 24.8849 6.2992 24.8955
6.3158 25.0428 6.3158 25.0535
6.3325 25.1979 6.3325 25.2086
6.3491 25.3535 6.3491 25.3642
6.3657 25.5122 6.3658 25.5228
6.3824 25.6700 6.3824 25.6807
6.3991 25.8295 6.3991 25.8402
6.4158 25.9876 6.4158 25.9982
6.4324 26.1432 6.4325 26.1538
6.4491 26.2974 6.4491 26.3081
6.4658 26.4526 6.4658 26.4632
6.4824 26.6085 6.4824 26.6191
6.4991 26.7676 6.4991 26.7783
6.5157 26.9238 6.5158 26.9344
6.5324 27.0775 6.5324 27.0881
6.5491 27.2066 6.5492 27.2173
6.5658 27.3490 6.5658 27.3596
6.5824 27.5033 6.5825 27.5139
6.5992 27.6672 6.5992 27.6779
6.6157 27.8282 6.6158 27.8389
6.6324 27.9908 6.6325 28.0015
6.6490 28.1497 6.6491 28.1603
6.6658 28.3132 6.6658 28.3238
6.6824 28.4744 6.6824 28.4850
6.6991 28.6339 6.6992 28.6445
6.7158 28.7978 6.7158 28.8085
6.7325 28.9661 6.7325 28.9767
6.7486 29.1288 6.7487 29.1395
   
"Disp (mm)" "Load (kN)" "d (raw)" "f (raw)"
0 0.0000 0.9986 0.2624
0.0164 0.0095 1.0150 0.2718
0.0333 0.0276 1.0319 0.2899
0.0500 0.0339 1.0486 0.2962
0.0667 0.0369 1.0653 0.2993
0.0833 0.0395 1.0819 0.3019
0.1000 0.0395 1.0986 0.3019
0.1167 0.0400 1.1152 0.3024
0.1334 0.0414 1.1319 0.3037
0.1500 0.0423 1.1486 0.3047
0.1667 0.0424 1.1652 0.3048
0.1834 0.0431 1.1819 0.3054
0.2001 0.0425 1.1986 0.3048
0.2167 0.0440 1.2152 0.3064
0.2333 0.0452 1.2319 0.3076
0.2500 0.0461 1.2485 0.3085
0.2667 0.0468 1.2652 0.3092
0.2834 0.0506 1.2819 0.3130
0.3000 0.0575 1.2986 0.3199
0.3167 0.0667 1.3153 0.3291
0.3334 0.0823 1.3319 0.3447
0.3500 0.1080 1.3486 0.3703
0.3666 0.1370 1.3652 0.3993
0.3834 0.1673 1.3819 0.4296
0.4000 0.1996 1.3986 0.4620
0.4167 0.2305 1.4153 0.4929
0.4334 0.2614 1.4319 0.5238
0.4500 0.2928 1.4486 0.5551
0.4667 0.3231 1.4653 0.5855
0.4834 0.3547 1.4819 0.6170
0.5000 0.3853 1.4985 0.6477
0.5167 0.4169 1.5153 0.6793
0.5333 0.4478 1.5319 0.7101
0.5501 0.4790 1.5486 0.7413
0.5667 0.5101 1.5652 0.7724
0.5834 0.5410 1.5819 0.8034
0.6000 0.5724 1.5986 0.8347
0.6167 0.6035 1.6152 0.8659
0.6333 0.6393 1.6319 0.9017
0.6500 0.6782 1.6486 0.9406
0.6666 0.7185 1.6652 0.9809
0.6834 0.7620 1.6820 1.0243
0.7000 0.8035 1.6986 1.0658
0.7167 0.8456 1.7153 1.1079
0.7334 0.8887 1.7319 1.1511
0.7500 0.9316 1.7486 1.1939
0.7667 0.9755 1.7652 1.2379
0.7834 1.0184 1.7820 1.2808
0.8000 1.0616 1.7986 1.3240
0.8167 1.1065 1.8153 1.3689
0.8334 1.1501 1.8319 1.4124
0.8501 1.1943 1.8486 1.4567
0.8667 1.2412 1.8653 1.5036
0.8834 1.2901 1.8820 1.5525
0.9000 1.3408 1.8986 1.6032
0.9167 1.3922 1.9152 1.6546
0.9333 1.4431 1.9319 1.7055
0.9501 1.4962 1.9486 1.7586
0.9667 1.5506 1.9653 1.8130
0.9834 1.6045 1.9819 1.8669
1.0000 1.6594 1.9986 1.9218
1.0167 1.7143 2.0153 1.9766
1.0333 1.7693 2.0319 2.0316
1.0500 1.8253 2.0486 2.0877
1.0666 1.8818 2.0652 2.1442
1.0834 1.9403 2.0820 2.2026
1.1000 1.9976 2.0986 2.2600
1.1167 2.0562 2.1153 2.3185
1.1334 2.1141 2.1319 2.3764
1.1501 2.1716 2.1486 2.4339
1.1667 2.2308 2.1652 2.4932
1.1834 2.2911 2.1819 2.5534
1.2000 2.3505 2.1986 2.6129
1.2168 2.4131 2.2153 2.6754
1.2334 2.4731 2.2320 2.7355
1.2500 2.5334 2.2486 2.7957
1.2666 2.5942 2.2652 2.8566
1.2834 2.6549 2.2819 2.9173
1.3000 2.7158 2.2986 2.9782
1.3167 2.7777 2.3152 3.0400
1.3334 2.8391 2.3319 3.1014
1.3500 2.9012 2.3486 3.1636
1.3667 2.9645 2.3653 3.2269
1.3834 3.0268 2.3819 3.2892
1.4000 3.0901 2.3986 3.3524
1.4167 3.1526 2.4153 3.4150
1.4334 3.2154 2.4320 3.4778
1.4500 3.2780 2.4485 3.5404
1.4667 3.3406 2.4652 3.6030
1.4834 3.4034 2.4819 3.6658
1.5001 3.4672 2.4986 3.7296
1.5167 3.5300 2.5153 3.7923
1.5334 3.5931 2.5319 3.8555
1.5500 3.6564 2.5486 3.9187
1.5667 3.7194 2.5652 3.9817
1.5833 3.7841 2.5819 4.0465
1.6000 3.8491 2.5986 4.1114
1.6167 3.9132 2.6152 4.1755
1.6334 3.9776 2.6320 4.2399
1.6501 4.0423 2.6486 4.3047
1.6667 4.1072 2.6653 4.3696
1.6834 4.1737 2.6819 4.4361
1.7000 4.2377 2.6986 4.5001
1.7166 4.3033 2.7152 4.5656
1.7334 4.3686 2.7319 4.6310
1.7500 4.4337 2.7486 4.6960
1.7667 4.4998 2.7653 4.7621
1.7834 4.5665 2.7820 4.8289
1.8000 4.6318 2.7986 4.8942
1.8167 4.6971 2.8152 4.9595
1.8334 4.7618 2.8319 5.0242
1.8500 4.8273 2.8485 5.0897
1.8667 4.8939 2.8653 5.1562
1.8834 4.9594 2.8819 5.2217
1.9001 5.0248 2.8986 5.2871
1.9167 5.0920 2.9153 5.3543
1.9334 5.1579 2.9320 5.4203
1.9500 5.2242 2.9486 5.4866
1.9667 5.2900 2.9652 5.5524
1.9833 5.3554 2.9819 5.6177
2.0000 5.4212 2.9986 5.6836
2.0167 5.4868 3.0152 5.7492
2.0334 5.5537 3.0320 5.8161
2.0500 5.6200 3.0486 5.8824
2.0668 5.6877 3.0653 5.9501
2.0833 5.7531 3.0819 6.0154
2.1000 5.8197 3.0986 6.0821
2.1166 5.8845 3.1152 6.1469
2.1334 5.9514 3.1319 6.2137
2.1500 6.0165 3.1486 6.2789
2.1667 6.0826 3.1653 6.3450
2.1834 6.1498 3.1819 6.4122
2.2001 6.2164 3.1986 6.4788
2.2167 6.2835 3.2152 6.5459
2.2334 6.3510 3.2319 6.6134
2.2500 6.4168 3.2486 6.6792
2.2667 6.4849 3.2652 6.7473
2.2833 6.5510 3.2819 6.8133
2.3000 6.6167 3.2986 6.8791
2.3167 6.6843 3.3153 6.9466
2.3334 6.7501 3.3320 7.0124
2.3500 6.8153 3.3486 7.0777
2.3667 6.8825 3.3652 7.1449
2.3833 6.9486 3.3819 7.2109
2.4000 7.0176 3.3986 7.2799
2.4167 7.0842 3.4152 7.3466
2.4334 7.1513 3.4320 7.4136
2.4500 7.2184 3.4486 7.4807
2.4667 7.2851 3.4653 7.5475
2.4833 7.3526 3.4819 7.6150
2.5000 7.4201 3.4986 7.6825
2.5167 7.4867 3.5153 7.7491
2.5334 7.5535 3.5320 7.8159
2.5500 7.6225 3.5486 7.8848
2.5666 7.6890 3.5652 7.9513
2.5833 7.7563 3.5819 8.0186
2.6000 7.8249 3.5986 8.0873
2.6167 7.8915 3.6152 8.1539
2.6334 7.9600 3.6319 8.2224
2.6500 8.0259 3.6486 8.2883
2.6667 8.0922 3.6652 8.3545
2.6833 8.1594 3.6819 8.4218
2.7001 8.2284 3.6986 8.4907
2.7167 8.2965 3.7153 8.5589
2.7334 8.3655 3.7320 8.6278
2.7500 8.4324 3.7485 8.6948
2.7667 8.5021 3.7652 8.7645
2.7834 8.5695 3.7819 8.8319
2.8000 8.6389 3.7986 8.9013
2.8166 8.7077 3.8152 8.9701
2.8334 8.7755 3.8320 9.0378
2.8500 8.8436 3.8486 9.1060
2.8667 8.9150 3.8653 9.1774
2.8834 8.9844 3.8819 9.2468
2.9000 9.0537 3.8986 9.3160
2.9167 9.1235 3.9152 9.3858
2.9333 9.1918 3.9319 9.4542
2.9500 9.2616 3.9486 9.5239
2.9668 9.3321 3.9653 9.5945
2.9834 9.4010 3.9820 9.6634
3.0001 9.4721 3.9986 9.7345
3.0167 9.5405 4.0152 9.8028
3.0333 9.6110 4.0319 9.8734
3.0500 9.6824 4.0486 9.9448
3.0667 9.7530 4.0652 10.0154
3.0833 9.8244 4.0819 10.0867
3.1000 9.8937 4.0986 10.1560
3.1167 9.9644 4.1153 10.2267
3.1334 10.0345 4.1320 10.2968
3.1500 10.1032 4.1486 10.3656
3.1667 10.1717 4.1652 10.4340
3.1833 10.2406 4.1819 10.5030
3.2000 10.3107 4.1986 10.5731
3.2167 10.3824 4.2152 10.6447
3.2334 10.4535 4.2319 10.7159
3.2500 10.5241 4.2486 10.7864
3.2667 10.5946 4.2652 10.8570
3.2834 10.6644 4.2820 10.9267
3.3000 10.7338 4.2986 10.9961
3.3167 10.8052 4.3152 11.0676
3.3333 10.8744 4.3319 11.1368
3.3500 10.9444 4.3486 11.2068
3.3667 11.0158 4.3652 11.2782
3.3834 11.0866 4.3820 11.3490
3.4000 11.1587 4.3986 11.4210
3.4168 11.2302 4.4153 11.4926
3.4334 11.3013 4.4319 11.5636
3.4500 11.3729 4.4486 11.6353
3.4667 11.4433 4.4652 11.7057
3.4833 11.5129 4.4819 11.7753
3.5000 11.5837 4.4986 11.8460
3.5167 11.6544 4.5153 11.9168
3.5334 11.7274 4.5319 11.9897
3.5501 11.8019 4.5486 12.0643
3.5667 11.8740 4.5652 12.1364
3.5833 11.9482 4.5819 12.2106
3.6000 12.0210 4.5986 12.2833
3.6166 12.0932 4.6152 12.3556
3.6334 12.1657 4.6319 12.4281
3.6501 12.2365 4.6486 12.4989
3.6667 12.3087 4.6652 12.5710
3.6834 12.3813 4.6819 12.6437
3.7000 12.4535 4.6986 12.7159
3.7166 12.5272 4.7152 12.7895
3.7333 12.6002 4.7319 12.8626
3.7500 12.6737 4.7486 12.9361
3.7667 12.7470 4.7652 13.0094
3.7834 12.8212 4.7820 13.0835
3.8000 12.8931 4.7986 13.1555
3.8168 12.9683 4.8153 13.2307
3.8334 13.0425 4.8320 13.3049
3.8500 13.1189 4.8486 13.3813
3.8666 13.1954 4.8652 13.4577
3.8834 13.2751 4.8819 13.5375
3.9000 13.3554 4.8986 13.6178
3.9168 13.4398 4.9153 13.7021
3.9333 13.5243 4.9319 13.7866
3.9501 13.6118 4.9486 13.8741
3.9667 13.6949 4.9653 13.9573
3.9834 13.7800 4.9819 14.0423
4.0000 13.8667 4.9986 14.1290
4.0167 13.9545 5.0153 14.2169
4.0333 14.0413 5.0319 14.3037
4.0500 14.1290 5.0486 14.3914
4.0666 14.2149 5.0652 14.4773
4.0834 14.3039 5.0819 14.5663
4.1000 14.3917 5.0986 14.6540
4.1167 14.4800 5.1153 14.7424
4.1334 14.5688 5.1319 14.8312
4.1500 14.6585 5.1486 14.9209
4.1666 14.7480 5.1652 15.0104
4.1834 14.8406 5.1820 15.1029
4.2000 14.9313 5.1986 15.1937
4.2167 15.0260 5.2153 15.2883
4.2334 15.1205 5.2319 15.3828
4.2500 15.2145 5.2486 15.4769
4.2666 15.3121 5.2652 15.5744
4.2834 15.4096 5.2819 15.6720
4.3000 15.5057 5.2985 15.7680
4.3167 15.6059 5.3153 15.8683
4.3334 15.7043 5.3319 15.9667
4.3500 15.8063 5.3486 16.0687
4.3667 15.9093 5.3652 16.1716
4.3834 16.0128 5.3819 16.2751
4.4000 16.1186 5.3986 16.3810
4.4167 16.2241 5.4153 16.4865
4.4333 16.3302 5.4319 16.5926
4.4500 16.4388 5.4486 16.7012
4.4667 16.5435 5.4653 16.8059
4.4834 16.6515 5.4820 16.9139
4.5000 16.7594 5.4986 17.0218
4.5167 16.8659 5.5153 17.1283
4.5334 16.9755 5.5319 17.2379
4.5500 17.0843 5.5486 17.3467
4.5666 17.1938 5.5652 17.4562
4.5834 17.3072 5.5819 17.5695
4.6001 17.4176 5.5986 17.6800
4.6167 17.5286 5.6153 17.7910
4.6334 17.6402 5.6319 17.9025
4.6501 17.7503 5.6486 18.0127
4.6667 17.8619 5.6652 18.1242
4.6834 17.9777 5.6819 18.2401
4.7000 18.0925 5.6986 18.3549
4.7167 18.2114 5.7153 18.4737
